Time (ms),Main Avg Current (mA),Main Avg Power (mW),Main Avg Voltage (V),USB Avg Current (mA),USB Avg Power (mW),USB Avg Voltage (V)
0.00,0,0,0,408.39,1973.3405,4.832
200.00,0,0,0,357.922,1740.2168,4.862
400.00,-0.008,0,0,415.025,2003.7407,4.828
600.00,-0.002,0,0,413.211,1994.1564,4.826
800.00,0,0,0,358.096,1742.4952,4.866
1000.00,0.005,0,0,410.726,1983.8066,4.83
1200.00,0,0,0,357.997,1742.7295,4.868
1400.00,0.002,0,0,411.699,1987.6829,4.828
1600.00,-0.007,0,0,462.482,2223.6135,4.808
1800.00,0.016,0,0,358.664,1744.5416,4.864
2000.00,0.005,0,0,411.938,1988.0128,4.826
2200.00,-0.01,0,0,412.136,1988.9684,4.826
2400.00,-0.002,0,0,357.862,1742.0723,4.868
2600.00,0,0,0,413.962,1997.7808,4.826
2800.00,-0.015,0,0,358.256,1742.5571,4.864
3000.00,-0.01,0,0,407.826,1969.7994,4.83
3200.00,0.02,0,0,416.106,2008.1276,4.826
3400.00,0.001,0,0,358.423,1743.3694,4.864
3600.00,0.001,0,0,411.104,1984.8102,4.828
3800.00,0.004,0,0,406.941,1965.525,4.83
4000.00,-0.02,0,0,360.688,1755.1078,4.866
4200.00,-0.006,0,0,409.989,1979.427,4.828
4400.00,0.011,0,0,357.93,1740.9714,4.864
4600.00,-0.01,0,0,410.063,1980.6042,4.83
4800.00,0.012,0,0,407.878,1970.0507,4.83
5000.00,0.009,0,0,357.862,1741.3566,4.866
5200.00,-0.029,0,0,415.937,2007.3121,4.826
5400.00,-0.003,0,0,412,1989.96,4.83
5600.00,-0.006,0,0,357.554,1739.8578,4.866
5800.00,-0.021,0,0,411.203,1984.4658,4.826
6000.00,0.033,0,0,439.079,2109.3354,4.804
6200.00,0.001,0,0,398.835,1928.766,4.836
6400.00,-0.001,0,0,414.013,1998.0269,4.826
6600.00,0,0,0,358.163,1742.1047,4.864
6800.00,-0.024,0,0,408.883,1975.7225,4.832
7000.00,0,0,0,409.561,1978.1796,4.83
7200.00,0.001,0,0,359.294,1746.8875,4.862
7400.00,-0.002,0,0,409.421,1977.5033,4.83
7600.00,-0.007,0,0,411.284,1984.8567,4.826
7800.00,-0.009,0,0,358.116,1742.5925,4.866
8000.00,-0.001,0,0,409.515,1977.1385,4.828
8200.00,0.006,0,0,409.671,1978.7108,4.83
8400.00,0.007,0,0,357.876,1740.7089,4.864
8600.00,-0.009,0,0,411.275,1986.4581,4.83
8800.00,0.002,0,0,369.706,1798.2499,4.864
9000.00,0,0,0,413.554,1996.6387,4.828
9200.00,-0.004,0,0,411.802,1988.1801,4.828
9400.00,-0.013,0,0,449.85,2160.1797,4.802
9600.00,0.013,0,0,604.497,2837.5088,4.694
9800.00,-0.009,0,0,357.704,1739.1569,4.862
10000.00,0.022,0,0,411.731,1987.8373,4.828
10200.00,0.002,0,0,456.885,2195.7896,4.806
10400.00,0,0,0,358.162,1742.0999,4.864
10600.00,-0.014,0,0,413.854,1997.2595,4.826
10800.00,0,0,0,417.568,2016.0183,4.828
11000.00,-0.003,0,0,359.414,1748.1897,4.864
11200.00,0,0,0,412.681,1992.424,4.828
11400.00,0.006,0,0,358.143,1741.2913,4.862
11600.00,-0.001,0,0,412.602,1992.8676,4.83
11800.00,0.022,0,0,415.236,2003.929,4.826
12000.00,0.003,0,0,357.872,1741.4053,4.866
12200.00,0.006,0,0,407.572,1968.5726,4.83
12400.00,-0.007,0,0,410.854,1982.7815,4.826
12600.00,0,0,0,358.007,1742.7781,4.868
12800.00,-0.003,0,0,411.644,1986.5941,4.826
13000.00,-0.002,0,0,439.364,2109.8259,4.802
13200.00,0.003,0,0,357.87,1742.1112,4.868
13400.00,-0.002,0,0,406.993,1965.7762,4.83
13600.00,-0.002,0,0,358.703,1744.014,4.862
13800.00,0.019,0,0,409.54,1978.0782,4.83
14000.00,0.023,0,0,413.859,1997.2837,4.826
14200.00,0,0,0,358.548,1743.9774,4.864
14400.00,0.009,0,0,451.881,2169.0291,4.8
14600.00,0,0,0,408.701,1974.8431,4.832
14800.00,0.009,0,0,357.696,1739.118,4.862
15000.00,0,0,0,410.7,1983.681,4.83
15200.00,0.018,0,0,360.103,1750.8208,4.862
15400.00,0.019,0,0,414.427,2000.0248,4.826
15600.00,-0.007,0,0,405.887,1961.2458,4.832
15800.00,-0.006,0,0,359.75,1749.824,4.864
16000.00,0.004,0,0,406.101,1960.6558,4.828
16200.00,0.02,0,0,408.886,1974.9193,4.83
16400.00,0.011,0,0,449.746,2159.6804,4.802
16600.00,0.015,0,0,595.811,2793.1619,4.688
16800.00,0.006,0,0,358.652,1743.7661,4.862
17000.00,0.009,0,0,415.764,2003.9825,4.82
17200.00,-0.008,0,0,455.492,2184.5396,4.796
17400.00,-0.008,0,0,358.275,1742.6495,4.864
17600.00,-0.012,0,0,409.018,1976.3749,4.832
17800.00,0.001,0,0,409.594,1975.8813,4.824
18000.00,0.002,0,0,357.739,1740.7581,4.866
18200.00,-0.011,0,0,410.453,1981.6671,4.828
18400.00,0.01,0,0,358.893,1744.9377,4.862
18600.00,0.019,0,0,421.942,2035.4481,4.824
18800.00,0.003,0,0,406.99,1964.9478,4.828
19000.00,-0.012,0,0,357.887,1740.7623,4.864
19200.00,-0.018,0,0,413.694,1996.4873,4.826
19400.00,-0.018,0,0,405.759,1960.6274,4.832
19600.00,-0.024,0,0,359.468,1747.0144,4.86
19800.00,0.023,0,0,410.769,1982.3713,4.826
20000.00,-0.004,0,0,452.161,2169.4685,4.798
20200.00,0,0,0,410.794,1984.135,4.83
20400.00,-0.024,0,0,413.139,1993.809,4.826
20600.00,-0.021,0,0,357.858,1742.0527,4.868
20800.00,0.01,0,0,409.099,1975.13,4.828
21000.00,-0.024,0,0,410.765,1982.3521,4.826
21200.00,0.021,0,0,357.37,1738.2476,4.864
21400.00,-0.002,0,0,407.573,1968.5775,4.83
21600.00,-0.001,0,0,409.341,1976.2983,4.828
21800.00,0.011,0,0,357.445,1739.3275,4.866
22000.00,-0.01,0,0,413.389,1995.0154,4.826
22200.00,0.006,0,0,417.655,2004.744,4.8
22400.00,0.006,0,0,357.884,1741.4636,4.866
22600.00,0.006,0,0,413.105,1994.4711,4.828
22800.00,0.005,0,0,358.568,1743.3575,4.862
23000.00,0.011,0,0,410.082,1981.5161,4.832
23200.00,-0.017,0,0,410.526,1982.0195,4.828
23400.00,0.001,0,0,357.741,1740.0521,4.864
23600.00,0.005,0,0,413.204,1995.7754,4.83
23800.00,-0.005,0,0,434.012,2086.7297,4.808
24000.00,-0.011,0,0,358.149,1742.0366,4.864
24200.00,0,0,0,409.103,1976.7856,4.832
24400.00,0.012,0,0,357.975,1741.9065,4.866
24600.00,0.024,0,0,409.885,1978.1051,4.826
24800.00,-0.011,0,0,408.281,1971.9972,4.83
25000.00,-0.009,0,0,357.968,1741.1562,4.864
25200.00,-0.002,0,0,408.804,1972.8881,4.826
25400.00,-0.007,0,0,452.773,2171.4993,4.796
25600.00,-0.01,0,0,357.868,1740.6699,4.864
25800.00,-0.015,0,0,414.362,1999.7111,4.826
26000.00,-0.005,0,0,451.395,2172.1125,4.812
26200.00,-0.003,0,0,362.977,1765.52,4.864
26400.00,0.016,0,0,411.445,1986.4565,4.828
26600.00,0.009,0,0,756.694,3452.0378,4.562
26800.00,-0.017,0,0,420.408,2027.2074,4.822
27000.00,0.012,0,0,420.174,2026.0791,4.822
27200.00,0.01,0,0,358.004,1741.3314,4.864
27400.00,0,0,0,406.982,1964.9091,4.828
27600.00,-0.004,0,0,409.561,1977.3606,4.828
27800.00,-0.001,0,0,358.991,1746.8502,4.866
28000.00,0,0,0,409.919,1979.9088,4.83
28200.00,-0.003,0,0,411.067,1984.6315,4.828
28400.00,0.014,0,0,357.88,1740.0126,4.862
28600.00,-0.002,0,0,409.47,1977.7401,4.83
28800.00,0,0,0,413.407,1997.5826,4.832
29000.00,-0.002,0,0,358.405,1744.7156,4.868
29200.00,0.011,0,0,409.075,1975.0142,4.828
29400.00,-0.007,0,0,357.825,1739.7452,4.862
29600.00,0.008,0,0,411.26,1984.7408,4.826
29800.00,-0.008,0,0,413.395,1995.0443,4.826
30000.00,-0.011,0,0,449.281,2156.5488,4.8
30200.00,0.011,0,0,576.51,2707.291,4.696
30400.00,0.002,0,0,359.079,1746.5603,4.864
30600.00,-0.017,0,0,417.87,2017.4763,4.828
30800.00,-0.016,0,0,359.528,1747.3062,4.86
31000.00,-0.001,0,0,412.111,1989.6719,4.828
31200.00,0.002,0,0,415.357,2003.6821,4.824
31400.00,-0.002,0,0,357.591,1740.0378,4.866
31600.00,-0.005,0,0,410.396,1983.0333,4.832
31800.00,-0.012,0,0,411.371,1986.0992,4.828
32000.00,-0.007,0,0,357.628,1739.5024,4.864
32200.00,0.011,0,0,410.285,1981.6765,4.83
32400.00,0,0,0,411.704,1988.5304,4.83
32600.00,-0.014,0,0,357.794,1739.5945,4.862
32800.00,0,0,0,410.302,1980.9381,4.828
33000.00,-0.023,0,0,413.629,1996.1736,4.826
33200.00,-0.007,0,0,357.603,1740.8114,4.868
33400.00,-0.008,0,0,417.031,2010.0895,4.82
33600.00,0.009,0,0,399.401,1931.5032,4.836
33800.00,-0.003,0,0,422.889,2039.1708,4.822
34000.00,-0.004,0,0,404.613,1954.2808,4.83
34200.00,-0.01,0,0,357.276,1737.0759,4.862
34400.00,0.039,0,0,409.845,1979.5513,4.83
34600.00,-0.002,0,0,409.031,1976.4377,4.832
34800.00,0.012,0,0,357.448,1738.627,4.864
35000.00,0.005,0,0,409.628,1977.684,4.828
35200.00,-0.022,0,0,357.479,1740.2078,4.868
35400.00,-0.006,0,0,412.441,1992.0901,4.83
35600.00,0.003,0,0,406.057,1961.2554,4.83
35800.00,0.003,0,0,358.929,1745.8306,4.864
36000.00,-0.008,0,0,411.47,1986.5771,4.828
36200.00,-0.002,0,0,416.344,2007.6107,4.822
36400.00,-0.007,0,0,357.973,1741.8966,4.866
36600.00,-0.001,0,0,436.566,2099.8826,4.81
36800.00,-0.003,0,0,413.403,1996.7366,4.83
37000.00,-0.005,0,0,357.913,1740.8888,4.864
37200.00,0,0,0,412.769,1992.0233,4.826
37400.00,-0.001,0,0,411.493,1987.5112,4.83
37600.00,0.008,0,0,357.865,1742.0868,4.868
37800.00,0.017,0,0,409.576,1977.4329,4.828
38000.00,-0.009,0,0,357.606,1739.3955,4.864
38200.00,0,0,0,411.913,1987.8922,4.826
38400.00,-0.002,0,0,407.568,1968.5533,4.83
38600.00,-0.012,0,0,357.907,1740.8596,4.864
38800.00,0.001,0,0,407.848,1969.9058,4.83
39000.00,0.016,0,0,413.957,1996.9285,4.824
39200.00,-0.016,0,0,357.537,1739.0598,4.864
39400.00,0.002,0,0,417.491,2015.6466,4.828
39600.00,-0.007,0,0,409.97,1979.3352,4.828
39800.00,-0.007,0,0,357.68,1741.1862,4.868
40000.00,0.016,0,0,419.272,2023.4067,4.826
40200.00,-0.014,0,0,449.694,2158.5312,4.8
40400.00,-0.001,0,0,602.558,2835.6377,4.706
40600.00,0,0,0,359.222,1746.5372,4.862
40800.00,-0.014,0,0,410.859,1982.8057,4.826
41000.00,-0.003,0,0,407.552,1969.2911,4.832
41200.00,-0.014,0,0,359.111,1747.4342,4.866
41400.00,0,0,0,409.07,1974.99,4.828
41600.00,0.024,0,0,358.753,1745.6921,4.866
41800.00,0.015,0,0,455.634,2184.3096,4.794
42000.00,0,0,0,407.092,1964.6261,4.826
42200.00,0.017,0,0,359.196,1747.8479,4.866
42400.00,-0.006,0,0,412.88,1992.559,4.826
42600.00,-0.009,0,0,416.702,2011.0039,4.826
42800.00,-0.02,0,0,357.813,1741.118,4.866
43000.00,0.002,0,0,417.8,2013.796,4.82
43200.00,0.012,0,0,410.964,1985.778,4.832
43400.00,0.008,0,0,357.393,1737.6448,4.862
43600.00,0,0,0,407.652,1969.7744,4.832
43800.00,-0.009,0,0,450.326,2160.6641,4.798
44000.00,0,0,0,414.353,1998.0101,4.822
44200.00,0.015,0,0,411.774,1988.0448,4.828
44400.00,-0.004,0,0,357.462,1738.6952,4.864
44600.00,-0.007,0,0,451.819,2166.9238,4.796
44800.00,0.012,0,0,410.786,1982.4534,4.826
45000.00,0.01,0,0,362.114,1759.8741,4.86
45200.00,0.003,0,0,411.305,1986.603,4.83
45400.00,-0.023,0,0,411.206,1984.4802,4.826
45600.00,-0.014,0,0,357.672,1740.432,4.866
45800.00,0.009,0,0,410.256,1979.8956,4.826
46000.00,-0.018,0,0,357.77,1740.1931,4.864
46200.00,0.009,0,0,411.971,1988.9961,4.828
46400.00,0,0,0,404.431,1951.7841,4.826
46600.00,0.006,0,0,357.511,1738.9333,4.864
46800.00,0,0,0,407.059,1965.2809,4.828
47000.00,0.008,0,0,408.079,1970.2054,4.828
47200.00,0.011,0,0,358.283,1742.6884,4.864
47400.00,-0.01,0,0,415.393,2003.8558,4.824
47600.00,-0.001,0,0,409.913,1979.0599,4.828
47800.00,-0.015,0,0,357.093,1737.6145,4.866
48000.00,0.003,0,0,407.626,1969.6488,4.832
48200.00,0.002,0,0,415.24,2003.9482,4.826
48400.00,0.022,0,0,357.272,1737.0565,4.862
48600.00,0.004,0,0,410.007,1981.1537,4.832
48800.00,0.019,0,0,357.729,1739.2784,4.862
49000.00,0,0,0,413.57,1995.0616,4.824
49200.00,0,0,0,408.443,1971.146,4.826
49400.00,0,0,0,357.859,1740.6262,4.864
49600.00,0.016,0,0,408.917,1974.2512,4.828
49800.00,-0.007,0,0,412.064,1989.4449,4.828
50000.00,0.012,0,0,357.946,1741.0493,4.864
50200.00,0.012,0,0,412.039,1989.3243,4.828
50400.00,0,0,0,434.238,2093.8958,4.822
50600.00,0,0,0,449.32,2155.8374,4.798
50800.00,-0.001,0,0,449.826,2159.1648,4.8
51000.00,0,0,0,407.93,1970.3019,4.83
51200.00,-0.01,0,0,409.744,1977.4246,4.826
51400.00,0.015,0,0,357.741,1740.0521,4.864
51600.00,0.008,0,0,411.414,1985.484,4.826
51800.00,0,0,0,409.427,1976.7136,4.828
52000.00,-0.007,0,0,357.618,1740.1693,4.866
52200.00,0.024,0,0,410.415,1980.663,4.826
52400.00,-0.006,0,0,405.819,1962.5406,4.836
52600.00,0.015,0,0,357.403,1739.1232,4.866
52800.00,0.024,0,0,454.248,2180.3904,4.8
53000.00,0.008,0,0,514.866,2457.9705,4.774
53200.00,-0.01,0,0,357.345,1738.126,4.864
53400.00,0.016,0,0,413.62,1996.1301,4.826
53600.00,-0.001,0,0,358.252,1742.5377,4.864
53800.00,0.005,0,0,409.022,1974.7583,4.828
54000.00,-0.01,0,0,414.024,1998.9078,4.828
54200.00,-0.01,0,0,358.084,1741.0045,4.862
54400.00,0.02,0,0,412.511,1989.953,4.824
54600.00,-0.015,0,0,411.104,1983.988,4.826
54800.00,-0.004,0,0,358.324,1742.8879,4.864
55000.00,-0.018,0,0,412.079,1987.8691,4.824
55200.00,-0.002,0,0,357.658,1741.0791,4.868
55400.00,0.008,0,0,412.901,1993.4861,4.828
55600.00,-0.017,0,0,407.484,1965.7028,4.824
55800.00,0.01,0,0,357.788,1740.2808,4.864
56000.00,0,0,0,414.859,2001.2798,4.824
56200.00,0.015,0,0,406.64,1963.2581,4.828
56400.00,0.006,0,0,357.832,1741.2106,4.866
56600.00,0.012,0,0,409.836,1979.5078,4.83
56800.00,0.002,0,0,410.589,1980.6813,4.824
57000.00,0.011,0,0,357.153,1737.1923,4.864
57200.00,0.01,0,0,409.355,1975.5474,4.826
57400.00,0.02,0,0,357.301,1737.912,4.864
57600.00,0,0,0,605.868,2839.0972,4.686
57800.00,-0.006,0,0,357.865,1741.3711,4.866
58000.00,0.004,0,0,416.351,2008.4773,4.824
58200.00,-0.01,0,0,409.835,1980.3226,4.832
58400.00,0.003,0,0,357.408,1739.8621,4.868
58600.00,0.001,0,0,415.339,2003.5952,4.824
58800.00,0.022,0,0,409.859,1978.7993,4.828
59000.00,0,0,0,357.964,1740.4209,4.862
59200.00,0.014,0,0,412.241,1988.6505,4.824
59400.00,0.014,0,0,412.854,1990.782,4.822
59600.00,0.02,0,0,385.213,1870.5944,4.856
59800.00,0.024,0,0,412.986,1993.8964,4.828
60000.00,0.003,0,0,358.092,1741.7595,4.864
60200.00,0.017,0,0,411.16,1985.0806,4.828
60400.00,0,0,0,417.853,2015.7228,4.824
60600.00,0,0,0,357.592,1740.0428,4.866
60800.00,-0.003,0,0,414.131,1997.7679,4.824
61000.00,-0.025,0,0,646.421,3016.2004,4.666
61200.00,0.003,0,0,358.74,1745.6289,4.866
61400.00,0.001,0,0,413.287,1993.6964,4.824
61600.00,-0.007,0,0,357.419,1737.7712,4.862
61800.00,0.001,0,0,408.926,1973.4769,4.826
62000.00,0.004,0,0,411.407,1984.6274,4.824
62200.00,0.005,0,0,357.278,1738.5149,4.866
62400.00,0.012,0,0,409.91,1977.4058,4.824
62600.00,-0.005,0,0,412.605,1991.2318,4.826
62800.00,0.015,0,0,357.93,1741.6874,4.866
63000.00,0.002,0,0,413.436,1994.4153,4.824
63200.00,0.012,0,0,409.833,1977.0344,4.824
63400.00,-0.02,0,0,357.824,1741.8872,4.868
63600.00,-0.003,0,0,415.423,2005.6624,4.828
63800.00,-0.001,0,0,408.06,1970.1136,4.828
64000.00,-0.009,0,0,357.417,1738.4762,4.864
64200.00,0.004,0,0,413.515,1996.4506,4.828
64400.00,-0.005,0,0,455.096,2178.9998,4.788
64600.00,-0.001,0,0,408.403,1971.7698,4.828
64800.00,0,0,0,411.549,1986.9586,4.828
65000.00,-0.007,0,0,358.304,1742.074,4.862
65200.00,-0.015,0,0,405.293,1958.3757,4.832
65400.00,0.019,0,0,411.224,1986.2119,4.83
65600.00,0.007,0,0,357.842,1739.8279,4.862
65800.00,-0.01,0,0,419.142,2021.1028,4.822
66000.00,0.012,0,0,481.175,2311.5647,4.804
66200.00,0.005,0,0,413.885,1998.2368,4.828
66400.00,0,0,0,407.666,1967.3961,4.826
66600.00,-0.006,0,0,357.269,1737.7565,4.864
66800.00,-0.018,0,0,412.52,1990.8215,4.826
67000.00,0.01,0,0,408.978,1973.7279,4.826
67200.00,-0.003,0,0,357.867,1739.9493,4.862
67400.00,0.016,0,0,410.874,1985.343,4.832
67600.00,0.006,0,0,406.9,1965.3269,4.83
67800.00,0.004,0,0,449.338,2155.9238,4.798
68000.00,-0.002,0,0,408.863,1974.8083,4.83
68200.00,0.007,0,0,360.218,1751.3799,4.862
68400.00,-0.007,0,0,410.569,1983.0482,4.83
68600.00,-0.012,0,0,424.76,2037.149,4.796
68800.00,-0.02,0,0,357.524,1739.7118,4.866
69000.00,0.004,0,0,409.972,1978.5249,4.826
69200.00,-0.007,0,0,397.828,1924.6918,4.838
69400.00,0,0,0,412.546,1991.7721,4.828
69600.00,0.01,0,0,413.966,1996.9719,4.824
69800.00,-0.005,0,0,357.962,1741.8431,4.866
70000.00,0.005,0,0,408.499,1972.2332,4.828
70200.00,-0.001,0,0,408.474,1972.1125,4.828
70400.00,-0.002,0,0,357.957,1741.1028,4.864
70600.00,-0.009,0,0,407.568,1969.3684,4.832
70800.00,-0.013,0,0,426.43,2046.864,4.8
71000.00,-0.003,0,0,358.641,1744.4297,4.864
71200.00,-0.021,0,0,414.632,2001.014,4.826
71400.00,-0.004,0,0,357.543,1739.0891,4.864
71600.00,-0.012,0,0,412.386,1990.9995,4.828
71800.00,0.003,0,0,408.857,1975.5969,4.832
72000.00,-0.011,0,0,398.033,1924.8876,4.836
72200.00,-0.002,0,0,405.882,1961.2217,4.832
72400.00,0,0,0,372.167,1809.476,4.862
72600.00,0.005,0,0,412.633,1992.1921,4.828
72800.00,0.004,0,0,407.664,1968.2018,4.828
73000.00,0,0,0,357.598,1740.0719,4.866
73200.00,0,0,0,414.172,1997.9657,4.824
73400.00,0.002,0,0,408.829,1974.644,4.83
73600.00,-0.016,0,0,357.226,1738.2618,4.866
73800.00,0.012,0,0,411.466,1985.735,4.826
74000.00,-0.002,0,0,411.651,1987.451,4.828
74200.00,0.002,0,0,358.645,1745.8838,4.868
74400.00,0.01,0,0,419.705,2022.9781,4.82
74600.00,-0.007,0,0,596.221,2801.0464,4.698
74800.00,0,0,0,360.761,1755.463,4.866
75000.00,0.004,0,0,410.985,1983.4136,4.826
75200.00,-0.005,0,0,357.435,1739.2788,4.866
75400.00,0.01,0,0,411.816,1987.4242,4.826
75600.00,0.003,0,0,408.332,1972.2435,4.83
75800.00,0.014,0,0,357.053,1735.9917,4.862
76000.00,-0.021,0,0,411.886,1989.4093,4.83
76200.00,0.012,0,0,409.072,1975.8176,4.83
76400.00,0,0,0,359.218,1748.6732,4.868
76600.00,-0.008,0,0,412.318,1990.6713,4.828
76800.00,0.008,0,0,448.939,2162.0901,4.816
77000.00,0.007,0,0,395.415,1911.4362,4.834
77200.00,0.01,0,0,407.541,1967.6079,4.828
77400.00,-0.008,0,0,359.195,1747.1245,4.864
77600.00,-0.006,0,0,422.959,2039.5084,4.822
77800.00,0.003,0,0,406.373,1963.5942,4.832
78000.00,0.01,0,0,452.687,2170.1816,4.794
78200.00,-0.012,0,0,595.084,2796.8945,4.7
78400.00,0.006,0,0,357.973,1741.1805,4.864
78600.00,0,0,0,408.853,1973.9423,4.828
78800.00,0.009,0,0,412.543,1990.1074,4.824
79000.00,0.008,0,0,367.809,1786.0804,4.856
79200.00,0.003,0,0,444.456,2134.2776,4.802
79400.00,-0.009,0,0,465.015,2226.4919,4.788
79600.00,0.006,0,0,357.418,1739.196,4.866
79800.00,-0.003,0,0,414.748,2001.5739,4.826
80000.00,0,0,0,357.067,1737.488,4.866
80200.00,0,0,0,451.572,2165.7393,4.796
80400.00,-0.006,0,0,414.735,2001.5111,4.826
80600.00,0.015,0,0,366.174,1779.6057,4.86
80800.00,0.009,0,0,417.207,2011.7722,4.822
81000.00,0.007,0,0,409.42,1975.8611,4.826
81200.00,0.015,0,0,357.636,1739.5414,4.864
81400.00,-0.003,0,0,409.358,1975.5618,4.826
81600.00,0.011,0,0,357.438,1738.5784,4.864
81800.00,0.005,0,0,408.844,1974.7164,4.83
82000.00,-0.008,0,0,416.323,2008.342,4.824
82200.00,-0.004,0,0,359.887,1751.2102,4.866
82400.00,-0.009,0,0,409.708,1978.0703,4.828
82600.00,-0.002,0,0,407.104,1965.4982,4.828
82800.00,-0.009,0,0,357.104,1736.9539,4.864
83000.00,-0.011,0,0,406.813,1963.2795,4.826
83200.00,-0.007,0,0,357.437,1738.5736,4.864
83400.00,-0.008,0,0,428.656,2062.6926,4.812
83600.00,-0.008,0,0,417.783,2017.0563,4.828
83800.00,-0.004,0,0,358.98,1739.6172,4.846
84000.00,-0.006,0,0,412.954,1992.9161,4.826
84200.00,0.009,0,0,418.956,2020.2058,4.822
84400.00,0.005,0,0,373.875,1813.2937,4.85
84600.00,-0.009,0,0,411.288,1986.521,4.83
84800.00,0.005,0,0,449.606,2164.4033,4.814
85000.00,-0.019,0,0,371.809,1804.7609,4.854
85200.00,-0.013,0,0,411.024,1983.6018,4.826
85400.00,-0.015,0,0,418.947,2019.3246,4.82
85600.00,-0.009,0,0,358.536,1744.6362,4.866
85800.00,0.017,0,0,409.552,1975.6788,4.824
86000.00,0.01,0,0,357.412,1739.1667,4.866
86200.00,0.007,0,0,412.161,1990.7377,4.83
86400.00,-0.007,0,0,407.41,1966.9756,4.828
86600.00,-0.006,0,0,357.171,1737.2797,4.864
86800.00,-0.009,0,0,409.964,1980.126,4.83
87000.00,0.006,0,0,414.641,2001.8867,4.828
87200.00,0.021,0,0,357.203,1738.1499,4.866
87400.00,-0.004,0,0,413.649,1996.2701,4.826
87600.00,-0.017,0,0,449.832,2159.1936,4.8
87800.00,-0.022,0,0,421.856,2033.3459,4.82
88000.00,0.006,0,0,405.295,1956.7644,4.828
88200.00,-0.001,0,0,357.432,1738.5492,4.864
88400.00,0.005,0,0,456.406,2188.9231,4.796
88600.00,0.003,0,0,407.61,1967.941,4.828
88800.00,-0.006,0,0,358.234,1742.4502,4.864
89000.00,-0.01,0,0,408.931,1974.3188,4.828
89200.00,0.012,0,0,412.591,1991.1643,4.826
89400.00,-0.004,0,0,357.512,1738.9382,4.864
89600.00,-0.005,0,0,417.508,2013.2235,4.822
89800.00,0.002,0,0,406.364,1963.5508,4.832
90000.00,0.003,0,0,358.777,1745.809,4.866
90200.00,-0.004,0,0,410.387,1981.3484,4.828
90400.00,-0.004,0,0,357.321,1738.7241,4.866
90600.00,0.009,0,0,413.25,1994.3446,4.826
90800.00,-0.006,0,0,414.324,1997.8704,4.822
91000.00,0.003,0,0,450.038,2161.0825,4.802
91200.00,0,0,0,411.221,1984.5527,4.826
